ID,PubChem ID,WEIGHT (g/mol),HEAVY ATOM COUNT,MELTING POINT (K)
1,2732,338.8,22,512.15
2,3702,365.8,24,434.15
4,5546,253.26,19,589.15
6,16230,266.09,16,833.45
7,3440,330.74,21,479.15
8,2369,307.4,22,344.15
10,1978,336.4,24,409.15
11,2162,408.9,28,472.15
12,2249,266.34,19,420.15
13,5388962,376.4,27,415.15
